File: output/3.01_averaged-data.csv
Wavelength (nm),ABS_mean,ABS_std,HDPE_mean,HDPE_std,LDPE_mean,LDPE_std,PA6_mean,PA6_std,PA66_mean,PA66_std,PC_mean,PC_std,PET_mean,PET_std,PMMA_mean,PMMA_std,PP_mean,PP_std,PS_mean,PS_std,PVC_mean,PVC_std
1550.0,59114.0,1519.82,46655.04,15608.8,50746.7,6018.14,129.0,148.306,371.1,414.593,64633.2,103.302,42134.1,19610.5,44593,23807.4,44820.9,22445.6,59699.5,3250.87,47300.4,23918.1
1559.45,61690.2,1263.84,45508.08,19501.4,51139.7,7103.08,1814.3,690.1,2675.45,1226.2,64519.9,86.2633,41030.9,20529.8,45189.9,23608.3,45082.0,22423.2,57731.9,5644.03,47792.4,23874.6
1568.9,64569.0,505.455,45956.4,22906.7,53090.1,7865.87,8578.2,2079.42,12759.5,3041.42,64506.9,69.9335,44560.8,18252.2,48344.6,19836.1,48929.4,19122.9,56456.3,9572.11,50965.8,20337
1578.35,65483.4,103.2,47845.7,22058,56030.6,6292.1,17584.3,2697.38,25931.55,3661.86,65236.1,41.0287,51693.4,14198.8,53526,14570.9,54785.1,14368.5,55938.1,11472.2,55245.5,14879.5
1587.8,64849.6,312.501,52128.0,18091.4,59160.3,2990.61,25510.3,2434.05,36953.4,3618.86,65401.9,25.2062,57883.1,9753.65,58410.4,9956.71,59610.9,10044.2,56311.7,11060.1,58889.3,9549.39
1597.24,64045.8,384.405,55539.16,14677.8,61672.0,1052.15,30457.1,2197.83,42970.6,4136.12,63444.6,100.494,59176.2,6923.49,60213.1,7169.25,61235.6,7300.29,56761.7,10546.2,60723.5,6400.46
1606.69,61995.4,540.511,57111.84,13994.2,63086.9,1100.25,33251.4,2501.77,45151.95,4226.16,59772.6,150.316,56894.1,5827.74,58290.9,5874.53,60425.3,6143.85,55114.9,10626.8,60703.7,5675.25
1616.14,55945.8,759.738,56902.2,14551.3,63542.7,1220.52,36490.2,2902.62,47129.9,3424.06,55625.6,173.346,55156.5,6229.08,54307.2,7417.8,59486,5949.72,49554.3,9553,59868.2,6137.66
1625.59,45798.2,920.468,56416.12,14527.6,63728.2,528.495,41789.9,3105.27,51401.1,2421.05,50254.6,185.188,53899.8,6870.15,51630.3,7198.15,59148.3,5873.34,40956.8,6123.84,59412.9,6472.1
1635.04,35370.4,1037.68,56873.92,14351.3,64257.5,657.771,48040.3,3599.94,57184.05,2860.3,41278.9,185.568,47727.8,5972.82,49520.8,7088.5,58193.6,5888.44,32600.3,2661.64,59502.5,6430.08
1644.49,28081.6,1087.86,57721.12,14857,64911.3,348.883,52710.4,4390.77,61694.7,3945.03,28316.5,158.585,33362.4,4634.22,45191.8,6956.01,56106,6979,26813.1,3408.41,59098.6,6412.35
1653.94,22931.4,987.667,57315.48,15227.7,64700.5,1550.44,54643.5,4953.59,63050.85,4544.43,14696.7,99.971,15996.8,7867.02,36513.6,7785.6,54290.8,9228.84,22454.5,3877.94,57162.9,6507.08
1663.39,16540.4,730.742,55105.24,14098,62965.3,2176.77,54754.8,5041.93,61575.35,4713.43,4717.43,35.9974,5614.72,10961.5,24901.2,10655.7,53643.7,11387.7,16670.0,3234.72,53785.7,6311.6
1672.83,8400.4,399.717,52371.0,11762.8,60103.3,2126.18,53730.5,4774.44,58585.15,4466.73,289.071,4.89116,7334.56,11036.5,14701.2,14244.9,52167.5,11814,8971.73,2247.31,49666.7,5382.34
1682.28,1916.6,136.008,50105.32,9596.3,56471.5,2724.7,50086.1,4298.14,54679.55,4147.39,988.214,19.9506,17036.6,10690.7,9580.36,16671.8,46661.5,9660.5,2387.8,1052.69,44611.2,4117.63
1691.73,0.0,0.0,46658.36,7654.74,50598.4,4225.86,41851.1,3771.45,49651.15,4774.31,5910.86,68.8164,26239.9,11640.4,9525.74,17359.8,36613.1,7509.14,76.2667,151.345,37403,5900.61
1701.18,1596.6,164.128,38947.52,5390.5,39855.1,4609.39,30177.4,3465.6,43809.75,6248.61,13745.5,112.002,29676.3,11304.8,11484.5,16984.9,25176.3,10144.7,1816.13,683.329,27776.1,10618.2
1710.63,3688.8,629.804,26760.92,6969.17,24205.2,3185.65,19906.8,3504.66,38803.85,7504.52,21818.1,133.788,28192.2,9464.22,12702.4,16569.2,16237.3,14464.1,4887.47,1726.49,18066,15362.9
1720.08,5249.4,1565.23,14875.04,12790.1,8739.07,1578.5,15524.3,3645.14,36729.45,8120.79,27363.9,138.552,26326.3,8973.78,13389.7,16621.1,11571.5,17756.5,7779.4,2835.31,11931.7,18910.8
1729.53,7469.4,2633.45,9351.6,17628.2,513.667,438.8,16982.0,3632.07,38323.75,8572.7,30297.1,136.556,28184.1,9753.09,15842.4,16983.1,10934,20137.2,11440.7,3388.09,11093.5,21189.5
1738.98,10714.2,3214.13,11523.24,20304.7,1911.6,644.509,20409.1,3610.69,42114.1,9330.74,33199.4,134.734,34517.9,9806.59,21342.4,17240.6,13397.6,21936.5,16606.1,4032.45,13784.5,22803.2
1748.43,13404.8,3056.32,16803.0,21931.4,8202.67,947.648,22719.0,3537.39,45524.5,10263.9,37872.0,136.686,42489.2,9106.11,28478.9,17052.8,17590.8,22804.5,21559.9,4994.04,16733.3,24072.4
1757.87,14473.2,2547.22,19986.52,22849.4,12836.3,1146.92,24422.9,3401.56,46987.5,11044.1,43182.1,143.953,48466.3,8221.88,34633.1,16191.8,21611.4,22395.7,23960.9,5545.28,18291.5,24513.1
1767.32,15284.0,2239.26,20626.28,22192.1,14334.2,1465.68,27688.0,3260.72,46997.0,11349.4,47162.5,153.976,51561.2,7308.48,38572,14700.3,24214.3,21097.1,24170.4,5405.01,19232.1,23571.1
1776.77,17837.4,2251.82,22012.56,20197.2,16345.8,2076.39,32866.3,2974.62,47046.55,11177.6,49876.6,163.876,53888.4,6280.71,41110.5,12978.6,25991.9,19747.7,25030.0,5104.84,20880.1,21564.6
1786.22,21909.6,2296.68,25676.16,18419.4,21323.9,2951.2,38052.4,2606.04,47663.1,10744.5,52670.3,174.939,57017.8,5188.43,43581.4,11286.2,28276.6,18739.8,28096.1,5344.57,23290.3,19339.4
1795.67,25405.4,2177.9,28984.68,17571.9,26636.3,3116.49,41586.8,2153.97,47787.45,10245,55445.9,186.411,59471.3,4405.29,46456.0,9356.85,30833.3,17758.2,31584.9,5829.28,25454.7,17135.9
1805.12,27314.6,2035.78,28802.16,16584.8,28207.0,3221.02,43724.3,1687.47,46155.65,9800.7,56658.4,197.005,59047.2,3476.8,49539.7,6853.93,31791.5,16404,32942.8,5673.79,26651.5,14434.9
1814.57,28862.8,2061.71,25848.12,14539.8,26228.3,4245.23,45623.4,1597.81,42908.2,9299.73,56009.6,204.196,56624.4,2780.1,52624.8,5329.28,30271.5,14739.9,32360.5,5028.8,27017.7,11040
1824.02,31355.0,2176.93,23814.12,12119.6,24941.5,5869.28,47777.9,1750.47,39451.9,8625.72,55294.1,200.024,55508.2,3870.29,55288.4,7167.24,28010.8,13096.2,32293.1,5000.58,27006.3,7835.84
1833.46,34165.6,2125.69,24832.24,10244.8,27180.8,6892.83,50171.7,1643.27,36892.2,7944.97,55961.1,180.186,57011.2,5137.35,56599.9,9478.06,27531.4,11417.5,33898.5,5468.07,26858,5743.09
1842.91,35876.2,1840.85,27619.0,8533.95,31482.3,7056.5,53261.8,1312.3,35135.05,7435.48,57345.6,155.769,58925.7,6294.38,56014.3,10698.8,29343.1,9421.11,35649.0,5679.2,26748.7,4629.89
1852.36,36663.8,1520.08,30233.48,6544.57,35175.5,7124.23,57645.8,918.758,33627.65,7151.2,58182.0,142.737,59164.0,7679.96,54492.8,11761.5,31931.1,7409.44,35973.9,5533.22,27082.7,4571.44
1861.81,38195.6,1340.1,32839.28,5924.92,38172.4,7337.8,62561.6,414.792,32374.8,6991.48,58447.6,140.365,58684.2,9143.39,53667.5,13567.7,34097.2,6293.13,35866.1,5497.96,28314.4,6171.66
1871.26,41118.2,1241.38,36561.88,6946.59,42005.6,6867.88,65483.8,50.2908,31639.45,6685.4,58396.8,137.713,58917.2,9811.46,53410.2,15194.9,36088.1,6082.69,37608.3,5558.14,30492.5,8356.07
1880.71,43894.0,1079.3,40785.32,7768.23,46412.7,5445.73,63754.9,296.218,30860.55,6288.67,57066.4,132.847,57975.2,9047,51141.7,14802.8,38306.1,5792.85,41541.5,5228.52,33117.4,9757.62
1890.16,44825.8,819.23,43381.8,8772.69,49194.5,4129.69,56594.1,1034.03,28642.1,5780.22,53820.4,133.229,52461.4,7887.18,44681.7,12360.3,40144.7,5644.78,45552.3,4520.23,35512.3,10557.2
1899.61,44509.4,575.794,43602.0,10762.8,49467.0,3897.55,45530.1,1776.64,24232.55,5123.24,50868.2,137.321,43089.3,8337.35,35679.9,10620,40907.7,7222.19,47920.2,3805.24,37416.3,11895.9
1909.06,45330.2,497.064,43264.16,12927.4,49069.3,4491.61,33271.9,2156.67,18739.05,4352.41,51773.6,132.763,35731.9,10166,29215.2,11106.5,41244.2,10666.5,49501.5,3427.78,39322,14132.5
1918.5,48687.0,515.434,44491.12,13900.9,49990.6,4764.64,22319.4,2203.08,14409.6,3599.28,56834.1,113.516,35533.2,11350.8,29488.9,12843.5,42710.5,14166,52432.1,3016.67,42148.5,16298.9
1927.95,53557.2,535.477,47215.88,13708.1,51841.3,4360.8,14106.3,2129.39,12559.7,3407.32,62036.4,91.6083,41517.8,11098.1,36144.7,14983.7,45877,16018.7,57288.7,2146.71,46253.8,17289.5
1937.4,57894.0,531.199,49587.88,13628.3,52936.7,4136.4,8715.5,2050.38,12255.25,3815.99,63863.4,82.3761,48134.3,10992.4,44739.8,16728.1,49369,16261.1,62186.7,1429.49,50545.9,17354.2
1946.85,60601.8,606.405,50044.8,14664.1,52766.3,4494.28,5231.3,1819.81,10999.75,3922.64,63413.9,85.3827,50526.6,12384.6,50103.4,18575.6,50814.8,16808,64313.3,1251.41,52750.7,18060.6
1950.0,61129.4,684.378,49667.8,15282.4,52543.7,4698.8,4311.4,1642.86,9963.5,3587.36,63367.9,86.7817,49989.1,13172.4,50553.5,19374.9,50503.5,17426,64036.7,1249.43,52646.9,18716.5