File: output/3.02_averaged-data.csv
Wavelength (nm),ABS_mean,ABS_std,HDPE_mean,HDPE_std,LDPE_mean,LDPE_std,PA6_mean,PA6_std,PA66_mean,PA66_std,PC_mean,PC_std,PET_mean,PET_std,PETG_mean,PETG_std,PLA_mean,PLA_std,PMMA_mean,PMMA_std,POM_mean,POM_std,PP_mean,PP_std,PS_mean,PS_std,PVC_mean,PVC_std,TPU_mean,TPU_std
1550.0,48632.7,7367.02,46559.9,10268.1,51636.7,5313.25,47.7778,109.667,239.419,377.389,64205.5,340.329,55756.4,6819.77,54026.9,8858.29,44798.5,15404,54145.2,9729.83,42271.8,5027.69,50099.125,9669.1,57702.9,3202.74,54442.1,11481.2,30662.3,5563.62
1562.6,55519.1,5212.81,50869.3,6778.8,53215.5,6823.42,8327.7,3733.71,7899.13,3859.38,64186,220.046,55868.4,8580.04,56923.7,6001.66,51594.7,11518.5,55942.9,8385.99,48282.5,4139.53,53680.1,7519.86,59111.8,5252.44,57079.6,8322.27,38768.9,4240.93
1575.2,63291,1705.14,57491.1,1966.32,56488.7,6486.44,23947.1,7464.22,25629.7,6474.93,64916.3,71.8481,59525.2,7776.61,62412.6,1535.22,60726.5,4997.65,59729.2,5263.6,56503.25,2817.62,60459.5,3887.38,60434.4,8911.83,61194,3753.9,51159.6,2675.58
1587.8,64866.7,469.874,60694.1,1036.91,59704.8,2681.64,34508.1,7128.31,39455.2,4654.76,65401.1,23.7432,63808.6,4310.02,65529.5,15.9597,63417.4,2923.48,63332.3,2708.13,61916.625,1720.12,64566.6,1626.38,59996.2,8540.44,63288.6,1457.51,58503.5,1784.13
1600.39,64903.5,811.927,62929.6,1077.72,62356.4,842.216,40117.3,6791.11,45698.4,4243.21,62343.9,112.466,62150.8,2575.65,63559.2,185.18,63195.6,2717.79,62792.4,2855.85,64900.5,755.133,64534.8,1115.6,59997.3,8079.26,63548.6,1179.5,62306.1,905.77
1612.99,62301.5,2355.28,64561.8,796.912,63678.5,1143.52,45381.9,8020.95,49133.2,4952.28,57073.7,188.262,58849.2,3049.15,60449.4,162.952,61420.8,4025.62,57608.5,6445.2,65062.5,193.026,63554.2,1726.62,56177,8647.56,63142.6,1676.16,65370.6,106.121
1625.59,51550.9,3800.36,63905.3,661.045,63796.4,472.834,51139.2,7443.14,53859.4,3887,50192.2,308.343,57158.0,4625.64,55099.9,1963.23,57623.9,4152.2,52930.7,6669.89,61742.0,852.451,62277.8,2468.16,44896.8,7786.91,62703.6,2338.35,62879.4,195.745
1638.19,38473.9,4417.58,63816.2,860.77,64432.4,517.788,56476.6,5606.5,59591.6,2766.82,37148,435.522,45087.7,4548.47,38536.1,3678.85,56160.8,4323.91,48351.8,6967.58,56462.6,1364.5,58967.1,3967.79,33923.3,10008.2,62447,2606.46,52018.9,823.861
1650.79,29974.8,4258.25,64717.5,842.439,65102.0,994.747,60276,5467.27,63339.7,3573.43,18921.4,355.864,19131.2,1448.34,14033.9,2091.2,53186.6,5277.43,37916.2,6058.64,47013.4,1601.31,56290.2,6078.68,28208,12775,60999.7,2980.24,39421.3,1324.11
1663.39,20808.9,3519.58,62028.9,1229.78,63238.4,1889.95,61531.2,6035.59,62946.7,4214.03,4729.15,113.008,949.913,999.265,299.654,59.2595,38215.9,5199.26,20380.6,4063.85,29839.6,1185.45,56491.8,8089.38,19831,8993.13,56818,3903.64,30452.4,1418.37
1675.98,8476.95,2422.9,56783.1,2123.18,59295.1,1898.83,59593.9,5847.64,59058.5,4161.19,0.0,0.0,6805.89,3507.16,4952.77,1755.02,18284.1,4868.62,5113.54,2359.19,11245.7,370.068,52631.9,8394.26,6715.68,1937.54,49800.8,4005.63,21621.9,1225.03
1688.58,1277.62,1435.07,51870.1,3879.49,53535.4,3290.91,52126.5,5922.05,53143,4261.69,3734.17,160.799,23626.6,9314.46,14961.3,5280.93,10266.5,4673.33,488.664,1686.63,1605.06,337.818,37890.3,6369.32,356.516,336.198,38615.7,2288.62,10460.5,781.392
1701.18,1498.67,693.296,40533.5,5954.47,40309.8,3984.4,38796.8,7091.96,46106.6,5954.83,13467.5,364.388,31952.1,10670.2,17953.3,6045.46,10706.0,3928.95,2803.09,2271.36,312.5625,307.042,18430,3437.33,4959.61,6619.22,22259.5,1914.11,2051.27,323.864
1713.78,2539.29,1380.53,19418.7,5092.65,18553.2,2201.44,27589.5,8121.95,40599,7408.59,23637.8,462.613,31140.8,9463.5,15476.4,4833.68,6096.88,2721.27,4302.16,2634.32,289.0,523.043,5263.67,3181.78,11566.1,12715.3,6641.52,1462.93,21.6,28.2154
1726.38,3669.05,3066.52,2499.26,1367.41,1973.0,750.733,26020.7,8173.03,40104.7,7701.35,29047.9,491.699,31635.9,10024.1,14482.6,4635.4,633.824,2252.14,5716.07,3007.04,403.8125,330.271,853.792,4165.12,16113.5,14548.9,152.675,196.816,789.667,216.697
1738.98,7772.95,3452.47,1209.32,315.343,2023.0,589.627,29337.3,7416.82,43611.1,7826.97,32761.8,492.207,37829.2,10079.3,17835.9,5266.03,4095.88,928.105,11829.4,4352.3,2491.31,352.337,1815.125,4662.11,21707.7,14213.7,1837.97,569.459,672.067,236.741
1751.57,11453.8,2291.08,6838.61,2866.3,10059,980.41,30479.1,6192.87,46332.7,8552.43,39229.9,465.058,45565.5,8777.38,23594.2,5504.18,11969.8,3271.75,21095.2,6211.62,5373.81,584.955,5579.17,5632.26,26392.9,13545.9,4318.3,1163.78,1010.87,364.855
1764.17,12387.2,1852.92,9163.0,4834.14,13728.3,1445.73,32388.7,5256.48,46624.0,9193.29,45567.3,436.631,50566.1,7661.02,29427.9,5508.39,18444.3,5280.92,28535.2,7122.12,8116.94,921.579,9832.79,6397.2,27143.3,12748.2,5828.56,1487.94,4326.73,346.924
1776.77,14817.6,2203.43,11862.9,4830.55,16458,1928.42,38167.5,4586.43,46633.5,9098.49,49418.2,416.536,53902.1,6699.12,35560,5315.65,25940.4,7157.67,33477.8,6898.14,11037.1,1594.74,13167.4,6522.17,28061.2,12347.9,9092.83,1680.67,10480.5,1009.08
1789.37,19876.6,2471.91,17697.9,5931.31,23630.4,2812.07,43007.6,3295.19,46729.9,8721.4,53220.5,385.313,57111,5495.57,41014.8,4976.27,32393.1,8445.85,38162.8,6643.82,13162.75,2213.74,16419.1,6891.05,31881.2,12229.8,13523.0,2422.88,17194.3,1404.76
1801.97,23902.9,2010.9,20292.4,7738.76,28426.3,2830.88,44570.4,1889.62,45033.1,8484.62,56096.8,345.537,57989.2,4656.24,42590.7,5363.02,32299.3,6504.05,43883.7,6820.82,14348.4,2694,19058.25,7293.34,34507.5,11593.5,17071.5,3211.83,22379.1,1671.56
1814.57,27033.1,2186.76,18019.5,7938.3,26779.8,3799.43,46303.4,1501.72,41441.6,7863.25,55633.5,333.514,56814.2,4387.06,42302,6199.3,29780.4,3277.44,50923.4,6887.68,16143.8,3247.44,19037.625,7072.33,34580.5,10748.6,19947.2,3541.82,26145.4,2090.67
1827.17,30989.0,2514.56,17460.7,7917.1,26414.3,5699.15,48485,1704.61,37597.2,7010.74,54952.6,345.828,57933.5,4948.25,46002.2,5989.72,31730.5,3252.66,57214.8,6763.06,18367.375,3767.15,18028.625,7107.19,35766.6,10612.2,22129.6,4046.06,29918.0,2489.01
1839.76,33389.9,2810.12,21227.4,8879.06,31277,6361.21,49773.6,2739.66,34245.5,6536.4,56518.7,324.59,61013.5,4720.11,52396,4852.29,36262.6,5151.48,59132,6461.82,19684.2,4046.25,19979.125,7519.72,38000.7,10332,23181.6,4915.98,33870.7,2858.43
1852.36,33637.7,3155.67,26437.4,8951.16,36450.8,6418.03,52842.6,4402.02,31494.2,6572.83,57845.8,300.945,62285.9,4775.9,56372.9,3948.13,40171.3,7536.51,57919.1,6400,20404.625,4175.87,24868.4,7450.79,38451.4,9743.52,24845.8,5590.95,37696.3,3401.07
1864.96,35612.2,3293.2,32226.7,7972.19,40664.6,6583.74,57730.4,5485.45,29779.1,6536.7,58125.4,319.12,62830.3,5320.36,58770.3,3282.7,44477.0,9202.04,58272.5,6783.18,21309.6,4288.89,29781,6969.11,38868.6,9471.43,28689.5,6096.08,41934.7,3999.82
1877.56,39093.7,3441.46,38531.3,7715.85,46025.9,5361.28,58213.9,6041.8,28529.3,6462.78,57554.5,247.007,62825.5,4940.94,59192.5,3337.78,46205.2,9989.81,57585.9,6696.68,22649.4,4346.82,33550.3,6716.95,42098.9,8796.45,33363.4,6684.82,44973.7,4466.1
1890.16,39246,3954.6,42738.3,7780.98,49734.1,3676.27,50718.7,5499.01,25617.3,6327.74,54254.3,359.837,57053.4,4774.63,52180.1,5748.1,39750.3,11139.5,48727.3,6313.83,24513.2,4373.7,36511.2,6640.86,46089.4,7296.44,37299.2,7067.1,42809.5,4808.72
1902.76,36821.8,5277.07,44036.1,7373.93,49840.4,3612.2,38203.4,3734.1,20086.2,5237.53,51482.4,611.147,47550.2,7148.54,41843.7,9455.92,29347.5,13171,35771.9,8344.49,26036.3,4489.51,39261.6,6708.15,48461.9,5711.07,40970.8,7392.04,35826.7,5012.8
1915.35,38199.5,6359.33,45455.8,7345.64,50233.1,4240.04,25124.6,2246.28,14469.5,3664.21,55359,378.912,44992.2,9030.14,40709.5,10569.4,27086.2,13739.9,32181.5,9699.38,27771.25,4655.91,43096.4,7039.95,51133.3,4357.34,45485,8359.13,30529.4,5022.99
1927.95,44981,5849.73,48586.6,7572.53,52377.7,3843.52,15033.8,1802.14,12104.1,2937.76,61868.7,202.312,50908,6787.71,48739.5,8155.53,37103.4,11605.1,41663.1,9000.19,33605.75,4698.54,48412.4,7187.77,55795.4,3046.64,51114,9510.55,31188.3,5027.52
1940.55,52047.7,4719.58,51291.2,7344.07,53379.3,3663.95,9393.37,2005.1,12010.8,3248.33,63472.4,268.006,56505.0,3259.19,55155.0,5439.31,50250.3,9272.53,54021.3,7447.45,43266.6,4571.39,53056.5,6928.67,60143.3,3364.77,56312.2,9905.74,34938.2,5128.99
1950.0,54478.3,4667.99,51520.4,7340.07,53136,4121.33,6892.96,2273.47,10408.8,3014.29,63095.9,245.099,57724.3,3004.35,56692.5,5055.36,54532.5,9533.81,58538.9,7157.59,47911.25,4480.83,54318.3,7066.36,61123.9,3118.85,58009.5,9805.47,36579.1,5092.21